Data from red_S050431__2__11-57-11-093.txt Node

Date: Wed Dec 17 11:57:11 CET 2025
User: r1113668
Spectrometer: S05043
Trigger mode: 0
Resolution mode: 1024 pixels
Integration Time (sec): 1,000000E-1
Scans to average: 10
Nonlinearity correction enabled: false
Boxcar width: 0
Baseline correction enabled: false
XAxis mode: Wavelengths
Number of Pixels in Spectrum: 1024
>>>>>Begin Spectral Data<<<<<
337,862	1503,1
338,317	1502,5
338,772	1500,3
339,228	1498,3
339,683	1502,3
340,139	1501,3
340,594	1498,9
341,05	1501,7
341,506	1503,5
341,961	1500,6
342,417	1499,2
342,873	1500,2
343,329	1502,8
343,785	1502,3
344,241	1500,8
344,696	1498,4
345,152	1500,5
345,609	1502
346,065	1496,9
346,521	1500,5
346,977	1499,6
347,433	1495,8
347,889	1501,2
348,346	1501,1
348,802	1500,8
349,259	1502,8
349,715	1499,7
350,171	1500,3
350,628	1502,4
351,085	1498,1
351,541	1498,8
351,998	1501,3
352,455	1500,6
352,911	1499,5
353,368	1500,4
353,825	1502,6
354,282	1499,5
354,739	1499,5
355,196	1497,1
355,653	1501,2
356,11	1501
356,567	1500,4
357,024	1500
357,481	1499,4
357,938	1499,4
358,396	1500,5
358,853	1499,8
359,31	1500
359,768	1501,9
360,225	1501,3
360,683	1496,3
361,14	1499,5
361,598	1498,6
362,055	1499,9
362,513	1503,2
362,971	1496,9
363,428	1496,6
363,886	1499,1
364,344	1499,7
364,802	1501,4
365,26	1497
365,718	1502,2
366,176	1501,7
366,634	1502,2
367,092	1502,7
367,55	1501,3
368,008	1500,1
368,466	1502
368,925	1501,3
369,383	1501,3
369,841	1500,9
370,3	1500,9
370,758	1501,8
371,216	1498,7
371,675	1501,3
372,133	1498,8
372,592	1501,7
373,051	1497,2
373,509	1501
373,968	1500,4
374,427	1497
374,886	1499,6
375,344	1503,4
375,803	1499,6
376,262	1502,1
376,721	1502,2
377,18	1498,8
377,639	1501,6
378,098	1499,5
378,558	1501,1
379,017	1501,2
379,476	1499,8
379,935	1497,8
380,395	1500,7
380,854	1499,8
381,313	1499,9
381,773	1500,8
382,232	1500,9
382,692	1498
383,151	1502,1
383,611	1498,3
384,071	1495,9
384,53	1498,7
384,99	1495,4
385,45	1502,3
385,91	1500,4
386,369	1502,3
386,829	1500,3
387,289	1501,6
387,749	1495,4
388,209	1499,7
388,669	1501
389,129	1498,9
389,59	1498,2
390,05	1501,4
390,51	1498,5
390,97	1501,6
391,431	1500,8
391,891	1501,2
392,351	1499,4
392,812	1501,2
393,272	1502,4
393,733	1503,5
394,193	1499,1
394,654	1497
395,115	1501,7
395,575	1501,1
396,036	1502,7
396,497	1501,2
396,958	1501,7
397,419	1501,3
397,88	1499,6
398,341	1499,6
398,802	1499,1
399,263	1501,5
399,724	1503
400,185	1501,4
400,646	1503,4
401,107	1496,3
401,568	1502,1
402,03	1500,1
402,491	1494,1
402,952	1502,1
403,414	1500,7
403,875	1499,7
404,337	1497,8
404,798	1498,3
405,26	1497,6
405,721	1497,3
406,183	1497,7
406,645	1499,9
407,107	1500,5
407,568	1502,8
408,03	1498,8
408,492	1500,9
408,954	1501,4
409,416	1499,2
409,878	1500,8
410,34	1497,2
410,802	1500,8
411,264	1500,1
411,726	1491,9
412,189	1500,2
412,651	1496,7
413,113	1501,6
413,575	1498,2
414,038	1502
414,5	1501,2
414,963	1502,1
415,425	1501,6
415,888	1500,7
416,35	1502,4
416,813	1500,6
417,275	1499,7
417,738	1499,9
418,201	1500
418,664	1497,2
419,127	1500,7
419,589	1501,7
420,052	1494,2
420,515	1500,7
420,978	1499,7
421,441	1499,4
421,904	1500,1
422,367	1500,8
422,831	1500,3
423,294	1498,5
423,757	1501,5
424,22	1498
424,684	1498,1
425,147	1501,7
425,61	1501,7
426,074	1499,7
426,537	1502,9
427,001	1503,8
427,464	1501,9
427,928	1492
428,392	1500,3
428,855	1496,2
429,319	1502,1
429,783	1501,8
430,247	1499,6
430,71	1502,3
431,174	1497,7
431,638	1497,9
432,102	1502,1
432,566	1501,1
433,03	1502,5
433,494	1502,2
433,959	1501,9
434,423	1499,4
434,887	1501,9
435,351	1501,8
435,815	1502,4
436,28	1502
436,744	1501
437,209	1500,2
437,673	1496,1
438,138	1502
438,602	1498,5
439,067	1501,3
439,531	1502,4
439,996	1501,6
440,461	1501,4
440,925	1500,2
441,39	1498,6
441,855	1502,8
442,32	1500,3
442,785	1501,3
443,25	1501,2
443,715	1498,4
444,18	1501,6
444,645	1501,2
445,11	1497
445,575	1500,1
446,04	1498,8
446,506	1501,2
446,971	1498
447,436	1499,3
447,902	1499,2
448,367	1501
448,832	1498,6
449,298	1500,7
449,763	1498,7
450,229	1498,2
450,695	1500,1
451,16	1498,3
451,626	1500,1
452,092	1501,1
452,557	1500,2
453,023	1499,6
453,489	1499,8
453,955	1500,1
454,421	1500,4
454,887	1499,5
455,353	1501,7
455,819	1501,8
456,285	1496,6
456,751	1501,5
457,217	1500,8
457,683	1501,2
458,15	1498
458,616	1500,4
459,082	1500,9
459,549	1501,1
460,015	1499,7
460,481	1499,5
460,948	1502,3
461,414	1500,4
461,881	1499,8
462,348	1500,2
462,814	1500,1
463,281	1500,6
463,748	1499,4
464,214	1501,3
464,681	1500,3
465,148	1500,1
465,615	1500
466,082	1501,6
466,549	1500,1
467,016	1502,7
467,483	1496,3
467,95	1502,2
468,417	1501
468,884	1501,7
469,351	1501,1
469,819	1498,35
470,286	1495,6
470,753	1500,7
471,221	1501,3
471,688	1501
472,155	1502,3
472,623	1503,5
473,09	1498,7
473,558	1498,6
474,026	1499,1
474,493	1500,4
474,961	1500,1
475,429	1499,9
475,896	1500,2
476,364	1500,8
476,832	1500,9
477,3	1497,8
477,768	1501,3
478,236	1498
478,704	1500,6
479,172	1500,9
479,64	1497,9
480,108	1498,5
480,576	1498,9
481,044	1499,6
481,513	1500,1
481,981	1500
482,449	1501,6
482,917	1500,4
483,386	1503,3
483,854	1501,6
484,323	1500,4
484,791	1494,1
485,26	1500,4
485,728	1499,1
486,197	1500,3
486,666	1499,7
487,134	1498
487,603	1497,1
488,072	1501
488,541	1500,8
489,01	1500,7
489,479	1499,2
489,947	1500,4
490,416	1501,3
490,885	1498,3
491,355	1500,7
491,824	1500,4
492,293	1500,6
492,762	1499,4
493,231	1496,7
493,7	1498,7
494,17	1492,8
494,639	1500,8
495,108	1496,7
495,578	1499,5
496,047	1499,5
496,517	1499,8
496,986	1502,1
497,456	1498,7
497,925	1502,2
498,395	1499,7
498,865	1501,2
499,335	1501,1
499,804	1500,3
500,274	1500,2
500,744	1500,2
501,214	1498,9
501,684	1503
502,154	1499,1
502,624	1496,9
503,094	1499,7
503,564	1500,6
504,034	1501,5
504,504	1499,3
504,974	1501,7
505,444	1501,3
505,915	1499,9
506,385	1500,4
506,855	1501,3
507,326	1499,9
507,796	1500,2
508,267	1498,7
508,737	1500,3
509,208	1502,1
509,678	1499,7
510,149	1503
510,62	1500,4
511,09	1501,3
511,561	1502,9
512,032	1500,5
512,503	1500,2
512,973	1500
513,444	1501,5
513,915	1500,9
514,386	1500,8
514,857	1501
515,328	1494,8
515,799	1499
516,27	1498
516,742	1500,1
517,213	1502,7
517,684	1500
518,155	1498,1
518,627	1497,3
519,098	1498,1
519,569	1499,7
520,041	1500,5
520,512	1498,4
520,984	1501
521,455	1502,3
521,927	1496,4
522,399	1501,5
522,87	1498,4
523,342	1501,3
523,814	1501
524,285	1502,9
524,757	1498,6
525,229	1500,3
525,701	1500,6
526,173	1501,6
526,645	1501,4
527,117	1500,6
527,589	1502,1
528,061	1502
528,533	1501,9
529,005	1502,9
529,477	1501,2
529,95	1499
530,422	1496,1
530,894	1502,3
531,367	1500,9
531,839	1495,2
532,311	1498,8
532,784	1500,8
533,256	1498,6
533,729	1502,7
534,202	1500,3
534,674	1499,4
535,147	1501,9
535,619	1502,1
536,092	1503,6
536,565	1501,3
537,038	1500
537,511	1502,9
537,983	1499,8
538,456	1500,4
538,929	1501,4
539,402	1500,7
539,875	1500,4
540,348	1500,1
540,822	1501,8
541,295	1502,6
541,768	1499,8
542,241	1501,2
542,714	1496,2
543,188	1498,5
543,661	1498,7
544,134	1500,4
544,608	1501,3
545,081	1501,8
545,555	1500
546,028	1502,3
546,502	1498,7
546,975	1502,6
547,449	1501,4
547,923	1501,2
548,396	1501,3
548,87	1501
549,344	1499,6
549,818	1498,9
550,292	1500,1
550,766	1502,9
551,239	1500,1
551,713	1500,1
552,187	1502,2
552,662	1499,6
553,136	1503,7
553,61	1501,7
554,084	1498,7
554,558	1498,8
555,032	1501
555,507	1501
555,981	1500,3
556,455	1502,2
556,93	1499,6
557,404	1498,9
557,879	1499,7
558,353	1502,2
558,828	1497,6
559,302	1500,9
559,777	1499,4
560,251	1495,5
560,726	1501,8
561,201	1501,1
561,676	1498,4
562,15	1500,4
562,625	1503,2
563,1	1500,6
563,575	1498,1
564,05	1497,2
564,525	1502
565	1499,7
565,475	1503,3
565,95	1498,4
566,425	1501,9
566,9	1500,7
567,376	1504,5
567,851	1502,9
568,326	1502
568,801	1501,8
569,277	1501,2
569,752	1498,9
570,228	1499,2
570,703	1500,5
571,179	1502,9
571,654	1501,3
572,13	1502,1
572,605	1502,4
573,081	1498,7
573,557	1503,4
574,032	1501,4
574,508	1498
574,984	1503,2
575,46	1502,9
575,936	1504,4
576,412	1499,7
576,888	1503,6
577,363	1502,2
577,84	1503,9
578,316	1504,3
578,792	1502,5
579,268	1504
579,744	1504,5
580,22	1505,5
580,696	1504,2
581,173	1502,3
581,649	1507
582,125	1506,8
582,602	1506,7
583,078	1510,8
583,555	1507,3
584,031	1508,9
584,508	1511,7
584,984	1509,7
585,461	1512,6
585,937	1515,1
586,414	1516
586,891	1516,8
587,368	1520,8
587,844	1521,4
588,321	1524,4
588,798	1528,9
589,275	1526
589,752	1527,8
590,229	1534,6
590,706	1538,5
591,183	1539,7
591,66	1548,4
592,137	1549,3
592,614	1554,4
593,092	1562
593,569	1565,7
594,046	1570
594,523	1577,3
595,001	1583
595,478	1590,6
595,955	1598,5
596,433	1606,8
596,91	1611,7
597,388	1626,9
597,865	1637,9
598,343	1655,6
598,821	1673,9
599,298	1679,6
599,776	1698,8
600,254	1712,3
600,732	1728,9
601,209	1755,1
601,687	1775,6
602,165	1796,9
602,643	1818,8
603,121	1850,9
603,599	1874,7
604,077	1906,4
604,555	1931
605,033	1967
605,511	2001,2
605,989	2048,9
606,468	2086,5
606,946	2126
607,424	2187,1
607,903	2220,8
608,381	2263,2
608,859	2327,2
609,338	2376,5
609,816	2446,6
610,295	2506,5
610,773	2583,3
611,252	2659,1
611,73	2744,7
612,209	2823,1
612,688	2912,9
613,166	3017,6
613,645	3093,5
614,124	3200,5
614,603	3282,8
615,082	3438,9
615,56	3569,3
616,039	3690,8
616,518	3913,7
616,997	4009,6
617,476	4148,3
617,955	4309,7
618,435	4436,7
618,914	4620
619,393	4776,2
619,872	4989
620,351	5187,6
620,831	5392,9
621,31	5611,3
621,789	5773,1
622,269	5990,4
622,748	6184,3
623,228	6380,9
623,707	6585,6
624,187	6827,4
624,666	7071,6
625,146	7472,1
625,625	7844,3
626,105	8173,6
626,585	8416,7
627,065	8728
627,544	8819
628,024	8996,5
628,504	9048,1
628,984	9002,9
629,464	8820,9
629,944	8617,9
630,424	8235,7
630,904	7924,6
631,384	7379,5
631,864	6879,2
632,344	6308,7
632,824	5723,1
633,304	5240,1
633,785	4709,1
634,265	4313,5
634,745	4005,9
635,226	3670,3
635,706	3469,4
636,186	3258
636,667	3095,4
637,147	2952,7
637,628	2809,3
638,109	2713,9
638,589	2632,2
639,07	2543
639,55	2453,8
640,031	2413,9
640,512	2335,1
640,993	2290,8
641,473	2243,5
641,954	2187,1
642,435	2127,2
642,916	2078,6
643,397	2020,8
643,878	1982,9
644,359	1940,2
644,84	1898,2
645,321	1866,7
645,802	1826,4
646,283	1805
646,765	1774,6
647,246	1747,3
647,727	1720,9
648,208	1706
648,69	1682
649,171	1662,9
649,652	1649,4
650,134	1640,7
650,615	1626,5
651,097	1617,3
651,578	1611,9
652,06	1602,6
652,542	1590,3
653,023	1586
653,505	1575
653,987	1570,3
654,468	1568,5
654,95	1560
655,432	1557,2
655,914	1553,9
656,396	1552,6
656,878	1546,9
657,36	1545,1
657,842	1539,8
658,324	1536,3
658,806	1533,8
659,288	1527,1
659,77	1528,7
660,252	1525,2
660,734	1525
661,217	1525,1
661,699	1522,7
662,181	1520,4
662,663	1517,5
663,146	1515,8
663,628	1518,4
664,111	1513,4
664,593	1512,3
665,076	1513,3
665,558	1511,8
666,041	1506,6
666,523	1510,6
667,006	1510
667,489	1505,5
667,971	1506,3
668,454	1507,9
668,937	1509,4
669,42	1507,9
669,903	1505,8
670,386	1506,2
670,868	1507,8
671,351	1503,4
671,834	1505,1
672,317	1505,6
672,8	1504,3
673,284	1505,6
673,767	1505
674,25	1503,4
674,733	1502,1
675,216	1501,5
675,7	1503,2
676,183	1504,3
676,666	1503,7
677,15	1498,9
677,633	1503,5
678,116	1502,3
678,6	1500,2
679,083	1502,2
679,567	1501,9
680,05	1501,6
680,534	1503,6
681,018	1502,4
681,501	1503,3
681,985	1500,9
682,469	1504,4
682,953	1501,8
683,436	1501
683,92	1500,1
684,404	1503,4
684,888	1500,1
685,372	1501,3
685,856	1504
686,34	1504,7
686,824	1502,6
687,308	1503,4
687,792	1501,5
688,276	1497,9
688,761	1501,6
689,245	1502,1
689,729	1503,9
690,213	1502,8
690,698	1502,7
691,182	1503,3
691,666	1502,5
692,151	1501,9
692,635	1503,5
693,12	1502,2
693,604	1502,6
694,089	1497,6
694,573	1500,5
695,058	1502,4
695,543	1499,5
696,027	1503,8
696,512	1500,3
696,997	1500,7
697,482	1502,1
697,967	1501,7
698,451	1501,6
698,936	1501,7
699,421	1500,4
699,906	1499,6
700,391	1501,5
700,876	1501,2
701,361	1500,5
701,846	1500,6
702,331	1502,2
702,817	1503,7
703,302	1503,9
703,787	1501,3
704,272	1502,4
704,758	1499,9
705,243	1501
705,728	1501,3
706,214	1499,9
706,699	1505,8
707,185	1502,9
707,67	1501
708,156	1499,7
708,641	1501,4
709,127	1502,8
709,612	1502,1
710,098	1502,7
710,584	1502,1
711,069	1501,6
711,555	1502,1
712,041	1500,2
712,527	1503,6
713,013	1502,7
713,499	1500,4
713,984	1501,6
714,47	1501,6
714,956	1499,6
715,442	1502,7
715,929	1502,7
716,415	1500,7
716,901	1498,2
717,387	1503,6
717,873	1501,7
718,359	1499,6
718,846	1500,5
719,332	1501,2
719,818	1498,1
720,305	1502,2
720,791	1501,6
721,277	1500,6
721,764	1503,3
722,25	1501,6
722,737	1501,5
723,223	1502,1
723,71	1501,9
724,197	1502,1
724,683	1502,5
725,17	1501,2
725,657	1498,5
726,143	1495,3
726,63	1500,4
727,117	1502,6
727,604	1501,1
728,091	1503,2
728,578	1502,5
729,065	1502,2
729,552	1500,9
730,039	1498,7
730,526	1501,6
731,013	1498,6
731,5	1502,3
731,987	1502
732,474	1500,2
732,961	1499,3
733,449	1500,8
733,936	1502
734,423	1500,2
734,91	1502,1
735,398	1501,9
735,885	1501,5
736,373	1497,1
736,86	1499,8
737,348	1498,5
737,835	1500,6
738,323	1502,2
738,81	1501
739,298	1498,2
739,786	1502,2
740,273	1502,6
740,761	1502,4
741,249	1502,7
741,737	1500,4
742,224	1498,8
742,712	1501,5
743,2	1500,3
743,688	1495,8
744,176	1501,5
744,664	1500,3
745,152	1497,1
745,64	1499,4
746,128	1498,3
746,616	1502,2
747,105	1501,6
747,593	1501
748,081	1500,3
748,569	1500
749,057	1502,6
749,546	1500,8
750,034	1501,5
750,522	1500,3
751,011	1502,8
751,499	1498,9
751,988	1502,5
752,476	1498,9
752,965	1503,3
753,453	1501,9
753,942	1501,7
754,431	1501,2
754,919	1502,3
755,408	1499,7
755,897	1499,7
756,385	1498,3
756,874	1501,2
757,363	1501,5
757,852	1502,4
758,341	1503,1
758,83	1501,5
759,319	1502,8
759,808	1499,2
760,297	1499,5
760,786	1503,2
761,275	1502
761,764	1500,6
762,253	1498,9
762,742	1500
763,231	1500,9
763,721	1500
764,21	1502,4
764,699	1499,8
765,189	1501,1
765,678	1501,8
766,167	1500,5
766,657	1500,7
767,146	1495,8
767,636	1495,1
768,125	1497
768,615	1498,9
769,104	1502,6
769,594	1499,2
770,084	1496,7
770,573	1500,5
771,063	1498,4
771,553	1500,7
772,043	1499,7
772,532	1500,8
773,022	1499,8
773,512	1502,6
774,002	1504,1
774,492	1499,5
774,982	1503
775,472	1500,6
775,962	1499,3
776,452	1500,4
776,942	1500,8
777,432	1502,4
777,922	1502,8
778,413	1501,3
778,903	1501,4
779,393	1502,8
779,883	1501,7
780,374	1500,7
780,864	1501,4
781,354	1503,3
781,845	1499
782,335	1501,4
782,826	1496,6
783,316	1501,1
783,807	1503,7
784,297	1504,9
784,788	1504,4
785,279	1501,9
785,769	1501,4
786,26	1501,2
786,751	1502,1
787,241	1503,1
787,732	1500,1
788,223	1501,9
788,714	1504
789,205	1501,2
789,696	1500,9
790,187	1501,5
790,678	1497,7
791,169	1501,4
791,66	1501,8
792,151	1500,5
792,642	1502,6
793,133	1502,4
793,624	1500,6
794,115	1502,7
794,606	1502,7
795,098	1503,2
795,589	1500,4
796,08	1497,9
796,572	1499,7
797,063	1500,3
797,554	1502,2
798,046	1501,4
798,537	1502,1
799,029	1503,3
799,52	1502,3
800,012	1502,1
800,503	1500,1
800,995	1498,9
801,487	1501,3
801,978	1504,8
802,47	1501,6
802,962	1502,8
803,454	1501,7
803,945	1503,6
804,437	1498,1
804,929	1499,9
805,421	1499,7
805,913	1499,1
806,405	1501,4
806,897	1502,3
807,389	1499,7
807,881	1501,9
808,373	1502,3
808,865	1497,6
809,357	1501
809,85	1502,4
810,342	1499,4
810,834	1500,2
811,326	1503
811,819	1503,4
812,311	1504
812,803	1504,3
813,296	1499,7
813,788	1501,2
814,28	1501,6
814,773	1502,9
815,265	1502,5
815,758	1502,7
816,251	1500,3
816,743	1499,5
817,236	1505,5
817,728	1501,7
818,221	1498,5
818,714	1494
819,207	1502,7
819,699	1503,3
820,192	1501,4
820,685	1503,3
821,178	1501,2
821,671	1502,8
822,164	1501,2
822,657	1501,3
823,15	1500,9
823,643	1502,5
824,136	1500,1
