Data from red_S050431__0__11-57-07-725.txt Node

Date: Wed Dec 17 11:57:07 CET 2025
User: r1113668
Spectrometer: S05043
Trigger mode: 0
Resolution mode: 1024 pixels
Integration Time (sec): 1,000000E-1
Scans to average: 10
Nonlinearity correction enabled: false
Boxcar width: 0
Baseline correction enabled: false
XAxis mode: Wavelengths
Number of Pixels in Spectrum: 1024
>>>>>Begin Spectral Data<<<<<
337,862	1502,8
338,317	1502
338,772	1500,2
339,228	1497,2
339,683	1501,2
340,139	1502,4
340,594	1500,3
341,05	1501
341,506	1503,1
341,961	1500,5
342,417	1499,4
342,873	1499,6
343,329	1501,8
343,785	1502,5
344,241	1501,6
344,696	1499,5
345,152	1499
345,609	1502
346,065	1497,8
346,521	1500,6
346,977	1498,4
347,433	1496
347,889	1501,7
348,346	1502
348,802	1500,4
349,259	1502,8
349,715	1499,9
350,171	1500,2
350,628	1502,7
351,085	1498,3
351,541	1500,5
351,998	1500,9
352,455	1499,4
352,911	1500,1
353,368	1499,9
353,825	1501,2
354,282	1500
354,739	1501,1
355,196	1497,1
355,653	1499,5
356,11	1499,3
356,567	1500,1
357,024	1499
357,481	1499,6
357,938	1500,4
358,396	1499,6
358,853	1500,5
359,31	1501,7
359,768	1501,4
360,225	1500,4
360,683	1498,2
361,14	1499,4
361,598	1498,5
362,055	1499,7
362,513	1502,2
362,971	1497,5
363,428	1495,9
363,886	1498
364,344	1499
364,802	1501,9
365,26	1497,7
365,718	1502,1
366,176	1502,7
366,634	1502
367,092	1501,3
367,55	1499,8
368,008	1500,8
368,466	1501
368,925	1500,7
369,383	1499,4
369,841	1500,5
370,3	1501,6
370,758	1501,6
371,216	1500,1
371,675	1501,4
372,133	1498,7
372,592	1500,9
373,051	1498,6
373,509	1501
373,968	1501,1
374,427	1498
374,886	1500,1
375,344	1502
375,803	1501,5
376,262	1502,5
376,721	1502,1
377,18	1498,4
377,639	1502,4
378,098	1498,7
378,558	1500,6
379,017	1500,2
379,476	1501,1
379,935	1499,1
380,395	1501,1
380,854	1498,9
381,313	1500
381,773	1500,6
382,232	1501,8
382,692	1498,6
383,151	1503,5
383,611	1498,5
384,071	1495,1
384,53	1497,7
384,99	1495,7
385,45	1503,1
385,91	1499,2
386,369	1502,1
386,829	1502,1
387,289	1502,1
387,749	1495
388,209	1499,7
388,669	1500,9
389,129	1501,3
389,59	1499,5
390,05	1502
390,51	1500,7
390,97	1500,2
391,431	1501,9
391,891	1500,9
392,351	1500,6
392,812	1502,2
393,272	1502,3
393,733	1503,1
394,193	1500,4
394,654	1498,6
395,115	1500,4
395,575	1501,9
396,036	1502,5
396,497	1501,8
396,958	1502,4
397,419	1502,2
397,88	1500,6
398,341	1499,8
398,802	1499,4
399,263	1499,9
399,724	1500,9
400,185	1500,9
400,646	1501,8
401,107	1497,7
401,568	1503,4
402,03	1500,1
402,491	1495,2
402,952	1500,5
403,414	1499,5
403,875	1497,5
404,337	1497,7
404,798	1497,8
405,26	1497,5
405,721	1498,3
406,183	1496,9
406,645	1499,5
407,107	1502,2
407,568	1501,2
408,03	1497,9
408,492	1500,7
408,954	1501,5
409,416	1499,1
409,878	1501,1
410,34	1497,3
410,802	1502,4
411,264	1500
411,726	1493
412,189	1501,1
412,651	1496,9
413,113	1504,2
413,575	1498,9
414,038	1501,9
414,5	1502,1
414,963	1502,4
415,425	1501,5
415,888	1499,7
416,35	1501,4
416,813	1501,8
417,275	1498,7
417,738	1500,2
418,201	1499,9
418,664	1497,5
419,127	1502,2
419,589	1501,5
420,052	1495
420,515	1500,4
420,978	1499,1
421,441	1500
421,904	1498,4
422,367	1500
422,831	1500,5
423,294	1500,9
423,757	1501
424,22	1498,3
424,684	1498,1
425,147	1502
425,61	1502,1
426,074	1499,7
426,537	1502,4
427,001	1502,8
427,464	1500,7
427,928	1492
428,392	1501,1
428,855	1496,4
429,319	1502,2
429,783	1500,4
430,247	1499,4
430,71	1502,1
431,174	1498,4
431,638	1497,7
432,102	1501,8
432,566	1501
433,03	1501,1
433,494	1501,2
433,959	1501,3
434,423	1500
434,887	1500,6
435,351	1501,8
435,815	1502,9
436,28	1502,3
436,744	1501,1
437,209	1501,5
437,673	1494,6
438,138	1501,4
438,602	1499
439,067	1500,9
439,531	1502,5
439,996	1502,8
440,461	1501,3
440,925	1498,8
441,39	1498,7
441,855	1502,7
442,32	1502,1
442,785	1500,5
443,25	1500,4
443,715	1497,2
444,18	1500,5
444,645	1500,8
445,11	1497,1
445,575	1499,4
446,04	1498,1
446,506	1501,2
446,971	1499,6
447,436	1497
447,902	1499,6
448,367	1501,4
448,832	1499,2
449,298	1499
449,763	1498
450,229	1499,4
450,695	1500,4
451,16	1497,7
451,626	1499,6
452,092	1502,4
452,557	1500,9
453,023	1501,9
453,489	1499,2
453,955	1499,7
454,421	1500,2
454,887	1499,5
455,353	1500,7
455,819	1500,4
456,285	1497,8
456,751	1502,4
457,217	1500,3
457,683	1500,3
458,15	1498,4
458,616	1501,3
459,082	1498,8
459,549	1500,8
460,015	1500
460,481	1500,5
460,948	1502,4
461,414	1499,9
461,881	1499,4
462,348	1501
462,814	1499,3
463,281	1500,2
463,748	1500,5
464,214	1501,6
464,681	1498,8
465,148	1500,7
465,615	1500,4
466,082	1501,9
466,549	1499,4
467,016	1501,9
467,483	1497,2
467,95	1502,8
468,417	1499
468,884	1501,5
469,351	1502,1
469,819	1498,9
470,286	1495,7
470,753	1500,4
471,221	1500,8
471,688	1501,2
472,155	1500,8
472,623	1501,1
473,09	1498,2
473,558	1497,8
474,026	1500,2
474,493	1500,1
474,961	1499,9
475,429	1500,4
475,896	1500,1
476,364	1500,1
476,832	1500,6
477,3	1498,3
477,768	1500,2
478,236	1498,7
478,704	1500,8
479,172	1500,7
479,64	1497,8
480,108	1497,8
480,576	1500
481,044	1499,7
481,513	1502,2
481,981	1500,1
482,449	1501,1
482,917	1501
483,386	1501,8
483,854	1500,2
484,323	1500,2
484,791	1495,5
485,26	1499,4
485,728	1497,9
486,197	1500,3
486,666	1499,7
487,134	1498,9
487,603	1496,5
488,072	1501,6
488,541	1500,7
489,01	1500,3
489,479	1498,3
489,947	1499,2
490,416	1503,9
490,885	1499,1
491,355	1501,4
491,824	1499,9
492,293	1501
492,762	1501,3
493,231	1497,9
493,7	1497,1
494,17	1493,1
494,639	1502,4
495,108	1500
495,578	1499,2
496,047	1498
496,517	1500
496,986	1502,2
497,456	1501
497,925	1502,1
498,395	1500,1
498,865	1500,9
499,335	1501,6
499,804	1502,2
500,274	1500,3
500,744	1499,6
501,214	1499
501,684	1501,6
502,154	1497,8
502,624	1497,6
503,094	1500,9
503,564	1500
504,034	1501,6
504,504	1499,9
504,974	1499,2
505,444	1501,3
505,915	1498,6
506,385	1498,8
506,855	1500,9
507,326	1500,9
507,796	1499,9
508,267	1498,7
508,737	1499,6
509,208	1500,6
509,678	1498,6
510,149	1502,7
510,62	1499,8
511,09	1500,3
511,561	1502,9
512,032	1500
512,503	1500,1
512,973	1500,7
513,444	1501,3
513,915	1502,5
514,386	1500,6
514,857	1499,4
515,328	1495,1
515,799	1500,4
516,27	1499,4
516,742	1500,1
517,213	1501,6
517,684	1498,8
518,155	1497,9
518,627	1500,4
519,098	1497,9
519,569	1499,8
520,041	1500,6
520,512	1499,1
520,984	1500,5
521,455	1503
521,927	1496,5
522,399	1500,5
522,87	1499,1
523,342	1501,3
523,814	1502,4
524,285	1503
524,757	1499,6
525,229	1500,8
525,701	1500,5
526,173	1500,9
526,645	1500,8
527,117	1501,7
527,589	1501,6
528,061	1502,1
528,533	1502,4
529,005	1501,6
529,477	1502,6
529,95	1499,6
530,422	1497,4
530,894	1502,7
531,367	1500,4
531,839	1496
532,311	1499,6
532,784	1499,7
533,256	1498,9
533,729	1502,1
534,202	1501,2
534,674	1499
535,147	1502,8
535,619	1501,5
536,092	1502,2
536,565	1501,9
537,038	1499,4
537,511	1503
537,983	1500
538,456	1500,8
538,929	1502,3
539,402	1499,5
539,875	1500,2
540,348	1499,9
540,822	1501,9
541,295	1503,5
541,768	1500,8
542,241	1501,2
542,714	1497
543,188	1498,4
543,661	1499,2
544,134	1500,7
544,608	1501,7
545,081	1501,9
545,555	1500,7
546,028	1503,2
546,502	1498,8
546,975	1502,3
547,449	1501,6
547,923	1501,1
548,396	1498,5
548,87	1501,5
549,344	1499,2
549,818	1500,4
550,292	1500,4
550,766	1504,3
551,239	1501,3
551,713	1502
552,187	1501,9
552,662	1500,9
553,136	1503,9
553,61	1502,5
554,084	1498
554,558	1500,4
555,032	1500,8
555,507	1501,7
555,981	1501,4
556,455	1502,6
556,93	1500,2
557,404	1499,2
557,879	1500
558,353	1502,4
558,828	1498,3
559,302	1502
559,777	1500,1
560,251	1496,8
560,726	1500,4
561,201	1501,6
561,676	1498,6
562,15	1501,2
562,625	1502,8
563,1	1498,8
563,575	1498,3
564,05	1496,9
564,525	1502,1
565	1499,7
565,475	1503
565,95	1499,2
566,425	1501,7
566,9	1501,2
567,376	1502,2
567,851	1503,3
568,326	1502
568,801	1502
569,277	1501,1
569,752	1499,1
570,228	1500,7
570,703	1501,4
571,179	1502,5
571,654	1500,8
572,13	1502,8
572,605	1502,7
573,081	1499,6
573,557	1503,1
574,032	1501
574,508	1499,6
574,984	1505
575,46	1501,3
575,936	1504,6
576,412	1500,2
576,888	1503,2
577,363	1502,3
577,84	1502,7
578,316	1504
578,792	1502,2
579,268	1504,6
579,744	1504,1
580,22	1506,8
580,696	1504
581,173	1502,3
581,649	1505,6
582,125	1506,2
582,602	1507,9
583,078	1510,8
583,555	1507,4
584,031	1507,5
584,508	1509,4
584,984	1509,8
585,461	1510
585,937	1513,5
586,414	1514,7
586,891	1514,8
587,368	1518,4
587,844	1520,5
588,321	1522,6
588,798	1527,3
589,275	1525,7
589,752	1525,8
590,229	1532,1
590,706	1537,6
591,183	1537,1
591,66	1544,4
592,137	1544,4
592,614	1550,8
593,092	1557,5
593,569	1561,2
594,046	1564,2
594,523	1572
595,001	1576,4
595,478	1583,9
595,955	1591,5
596,433	1598,3
596,91	1602,1
597,388	1616,5
597,865	1629,6
598,343	1643,4
598,821	1658,6
599,298	1665
599,776	1682,5
600,254	1693,8
600,732	1711,2
601,209	1735,1
601,687	1755,5
602,165	1774,6
602,643	1795,6
603,121	1826,1
603,599	1850,7
604,077	1879,4
604,555	1905,4
605,033	1938,1
605,511	1972,4
605,989	2018,9
606,468	2054,8
606,946	2093
607,424	2149,8
607,903	2185,4
608,381	2227,6
608,859	2289,5
609,338	2340
609,816	2412,6
610,295	2471,5
610,773	2548,9
611,252	2626,2
611,73	2709,6
612,209	2789,1
612,688	2876
613,166	2978,8
613,645	3055
614,124	3163,4
614,603	3244,9
615,082	3406,4
615,56	3540,2
616,039	3662,9
616,518	3891,5
616,997	3992,2
617,476	4136,9
617,955	4300,8
618,435	4431,5
618,914	4613,8
619,393	4771,9
619,872	4987,1
620,351	5178,7
620,831	5389,9
621,31	5611,6
621,789	5779,5
622,269	6012,6
622,748	6218,6
623,228	6433,8
623,707	6661,1
624,187	6913,6
624,666	7177,4
625,146	7601,9
625,625	7984
626,105	8322,7
626,585	8583,7
627,065	8910,5
627,544	9009,5
628,024	9207,2
628,504	9268,8
628,984	9238,2
629,464	9072,7
629,944	8888
630,424	8519,4
630,904	8216
631,384	7665
631,864	7153,5
632,344	6567,5
632,824	5954,7
633,304	5446,7
633,785	4886,1
634,265	4468,8
634,745	4143,9
635,226	3793
635,706	3582,3
636,186	3358
636,667	3191,2
637,147	3044,9
637,628	2898,2
638,109	2800,8
638,589	2717,2
639,07	2624,6
639,55	2530,7
640,031	2492,1
640,512	2406,6
640,993	2358,3
641,473	2312,6
641,954	2250,9
642,435	2188,8
642,916	2136,4
643,397	2074,2
643,878	2032,6
644,359	1988,4
644,84	1942,7
645,321	1905,2
645,802	1863,2
646,283	1840,5
646,765	1804,9
647,246	1775
647,727	1747,3
648,208	1729,1
648,69	1703,6
649,171	1682,4
649,652	1667,8
650,134	1657,1
650,615	1641,6
651,097	1630,2
651,578	1625
652,06	1614,9
652,542	1601,5
653,023	1595,9
653,505	1586,5
653,987	1579,4
654,468	1577,4
654,95	1566,4
655,432	1565
655,914	1560,5
656,396	1558,3
656,878	1554,1
657,36	1549,2
657,842	1543,4
658,324	1539,9
658,806	1537,9
659,288	1530,2
659,77	1532,9
660,252	1527,5
660,734	1528,5
661,217	1527,9
661,699	1525,8
662,181	1522,2
662,663	1519,1
663,146	1516,5
663,628	1519,2
664,111	1516
664,593	1514,8
665,076	1513,5
665,558	1513,5
666,041	1508
666,523	1511,4
667,006	1510,5
667,489	1505,6
667,971	1507,8
668,454	1507,7
668,937	1510,5
669,42	1508,2
669,903	1504,7
670,386	1507,7
670,868	1506,9
671,351	1503,4
671,834	1505,8
672,317	1506,5
672,8	1506
673,284	1505,8
673,767	1505,4
674,25	1504,1
674,733	1502,2
675,216	1501,7
675,7	1502,6
676,183	1504,6
676,666	1503,2
677,15	1500
677,633	1504,1
678,116	1502,8
678,6	1500,1
679,083	1501,7
679,567	1502,7
680,05	1502,8
680,534	1503,9
681,018	1502,6
681,501	1503,1
681,985	1501,6
682,469	1504,7
682,953	1503
683,436	1501,2
683,92	1500,5
684,404	1503,7
684,888	1501,1
685,372	1500,4
685,856	1503
686,34	1503,7
686,824	1503,4
687,308	1504,3
687,792	1501,1
688,276	1497,7
688,761	1502
689,245	1502,1
689,729	1503,6
690,213	1502
690,698	1503
691,182	1503,5
691,666	1503,4
692,151	1503
692,635	1504,2
693,12	1501,2
693,604	1502,5
694,089	1497,3
694,573	1500,5
695,058	1502,3
695,543	1499
696,027	1503,6
696,512	1500,8
696,997	1501,3
697,482	1501,1
697,967	1501,4
698,451	1500,8
698,936	1501,7
699,421	1500,6
699,906	1501,4
700,391	1502,8
700,876	1501,7
701,361	1500,5
701,846	1501,4
702,331	1502,6
702,817	1501,8
703,302	1505,1
703,787	1501,2
704,272	1503,1
704,758	1499,1
705,243	1500,7
705,728	1501,1
706,214	1499,3
706,699	1505
707,185	1502,5
707,67	1500,3
708,156	1500
708,641	1501
709,127	1503,8
709,612	1503,1
710,098	1503,7
710,584	1500,8
711,069	1502
711,555	1502
712,041	1501,1
712,527	1502,4
713,013	1503,2
713,499	1501,2
713,984	1501,6
714,47	1501,2
714,956	1500,4
715,442	1500,5
715,929	1504,1
716,415	1500,3
716,901	1499,6
717,387	1503,2
717,873	1501,1
718,359	1499,4
718,846	1499,2
719,332	1499,3
719,818	1497,9
720,305	1502
720,791	1500,3
721,277	1500,4
721,764	1501,7
722,25	1501,8
722,737	1503
723,223	1501,4
723,71	1502
724,197	1501,6
724,683	1502,9
725,17	1500,9
725,657	1497,9
726,143	1495,7
726,63	1500,8
727,117	1503
727,604	1500,1
728,091	1501,6
728,578	1502,7
729,065	1502,6
729,552	1502,4
730,039	1497,9
730,526	1501,8
731,013	1499
731,5	1502,1
731,987	1502,1
732,474	1499,2
732,961	1499,3
733,449	1500,7
733,936	1500,2
734,423	1499,1
734,91	1502,6
735,398	1502,6
735,885	1500
736,373	1497,5
736,86	1501,5
737,348	1500,2
737,835	1502,2
738,323	1501,3
738,81	1501,4
739,298	1498,3
739,786	1502,4
740,273	1502,5
740,761	1502,1
741,249	1501,9
741,737	1503,2
742,224	1499,8
742,712	1502,4
743,2	1500,9
743,688	1497,8
744,176	1502,3
744,664	1501,6
745,152	1497,5
745,64	1499,2
746,128	1498,4
746,616	1503,1
747,105	1502,35
747,593	1501,6
748,081	1499,9
748,569	1501,8
749,057	1502,8
749,546	1499,9
750,034	1500
750,522	1500,5
751,011	1502,9
751,499	1499,4
751,988	1502,4
752,476	1497,3
752,965	1502,6
753,453	1501,8
753,942	1500,1
754,431	1503
754,919	1503,1
755,408	1499,9
755,897	1499,9
756,385	1499,5
756,874	1501,8
757,363	1502,4
757,852	1501,8
758,341	1503,1
758,83	1501,6
759,319	1503
759,808	1499,5
760,297	1499,9
760,786	1502,3
761,275	1502,9
761,764	1502,1
762,253	1500,2
762,742	1499
763,231	1500,7
763,721	1500,9
764,21	1503
764,699	1498,7
765,189	1500
765,678	1502,2
766,167	1500,7
766,657	1499,5
767,146	1495,3
767,636	1495,1
768,125	1496,4
768,615	1500,4
769,104	1502
769,594	1498,1
770,084	1497,2
770,573	1501,7
771,063	1496,8
771,553	1499,8
772,043	1501,3
772,532	1500
773,022	1500
773,512	1500,6
774,002	1503,4
774,492	1498,4
774,982	1502
775,472	1499,8
775,962	1499,3
776,452	1499,7
776,942	1500
777,432	1501,2
777,922	1502,7
778,413	1501
778,903	1502,5
779,393	1503,2
779,883	1500,8
780,374	1499,4
780,864	1500,6
781,354	1503,1
781,845	1499
782,335	1499,9
782,826	1499,3
783,316	1501,4
783,807	1504,8
784,297	1502,2
784,788	1503,9
785,279	1503
785,769	1500,7
786,26	1502,6
786,751	1500,5
787,241	1502,1
787,732	1500,1
788,223	1502,5
788,714	1503,6
789,205	1501,3
789,696	1503
790,187	1502,3
790,678	1499,3
791,169	1502
791,66	1502,7
792,151	1500,1
792,642	1502,2
793,133	1501,7
793,624	1502,2
794,115	1503,7
794,606	1502,3
795,098	1501,6
795,589	1500,1
796,08	1497,2
796,572	1501
797,063	1500,5
797,554	1502,3
798,046	1500,5
798,537	1503,7
799,029	1504,6
799,52	1501,9
800,012	1500,9
800,503	1501,6
800,995	1500,1
801,487	1501,7
801,978	1503,3
802,47	1502,3
802,962	1502,6
803,454	1502,3
803,945	1504
804,437	1499,1
804,929	1500,4
805,421	1500,8
805,913	1500,6
806,405	1500,5
806,897	1501,9
807,389	1499,6
807,881	1502,4
808,373	1499,9
808,865	1497,3
809,357	1500,7
809,85	1502,2
810,342	1500,6
810,834	1499,9
811,326	1502,7
811,819	1503,7
812,311	1503,7
812,803	1503,5
813,296	1498
813,788	1499,8
814,28	1502,7
814,773	1502,8
815,265	1501,5
815,758	1499,3
816,251	1501,6
816,743	1499,2
817,236	1505,9
817,728	1503,4
818,221	1496,9
818,714	1494,8
819,207	1503,1
819,699	1502,8
820,192	1501
820,685	1502,1
821,178	1502,2
821,671	1503,3
822,164	1501,5
822,657	1501,6
823,15	1500,3
823,643	1502,2
824,136	1503,1
